Kmac Spectrometer Data File
--- Measurement Setting ---
Type: Dark Spectrum
Date: Tue Dec 04 16:58:46 2018
User: (Reserved by KMAC)
Serial: (Reserved by KMAC)
Channel: No. 1
Integration Time: 100
Average: 10
Boxcar: 5
Electrical Dark: (Reserved by KMAC)
Time Normalize: (Reserved by KMAC)
Dual-beam: (Reserved by KMAC)
Reference Ch: (Reserved by KMAC)
--- Measurement Data ---
    0        341.9     -7.13333
    1      342.363     -2.78571
    2      342.825      -1.8125
    3      343.287     -1.22222
    4       343.75         -0.1
    5      344.212      1.66364
    6      344.674      4.62727
    7      345.136      6.98182
    8      345.598      10.8182
    9       346.06      14.9818
   10      346.522      15.8182
   11      346.984      14.1091
   12      347.445      13.1091
   13      347.907      13.2182
   14      348.368      14.4091
   15       348.83      15.2545
   16      349.291      13.9091
   17      349.752      11.5182
   18      350.213      8.65455
   19      350.674      7.45455
   20      351.135      10.0455
   21      351.596      15.6364
   22      352.057      19.9091
   23      352.517      21.5091
   24      352.978      22.6727
   25      353.439      21.3455
   26      353.899         18.8
   27      354.359      18.6727
   28       354.82      20.0091
   29       355.28      21.4273
   30       355.74      21.3273
   31        356.2      18.1091
   32       356.66      12.6636
   33       357.12      8.17273
   34       357.58      5.13636
   35      358.039      2.55455
   36      358.499          1.6
   37      358.958      2.25455
   38      359.418      1.36364
   39      359.877     -1.19091
   40      360.336     -3.81818
   41      360.796     -6.90909
   42      361.255     -5.67273
   43      361.714     -1.07273
   44      362.173      1.33636
   45      362.631      2.16364
   46       363.09      2.01818
   47      363.549     0.736364
   48      364.007     0.181818
   49      364.466     0.754545
   50      364.924      1.27273
   51      365.383      2.40909
   52      365.841      4.74545
   53      366.299      2.41818
   54      366.757     -2.88182
   55      367.215     -4.48182
   56      367.673     -5.34545
   57      368.131     -5.72727
   58      368.588     -5.49091
   59      369.046     -6.24545
   60      369.504     -7.37273
   61      369.961     -6.87273
   62      370.418     -5.85455
   63      370.876     -7.69091
   64      371.333     -8.62727
   65       371.79     -7.69091
   66      372.247     -9.39091
   67      372.704     -10.7273
   68      373.161     -10.6182
   69      373.618     -9.89091
   70      374.074         -8.9
   71      374.531         -8.4
   72      374.987     -9.83636
   73      375.444     -12.4909
   74        375.9     -13.1636
   75      376.356     -10.7545
   76      376.812     -7.03636
   77      377.269     -4.11818
   78      377.725     -3.36364
   79       378.18     -3.92727
   80      378.636     -4.03636
   81      379.092     -4.18182
   82      379.548     -4.14545
   83      380.003     -2.79091
   84      380.459    -0.145455
   85      380.914      2.74545
   86      381.369      3.40909
   87      381.825      2.33636
   88       382.28      1.95455
   89      382.735      5.06364
   90       383.19      11.2455
   91      383.645      15.4273
   92      384.099      17.4545
   93      384.554      18.8364
   94      385.009      19.8909
   95      385.463      19.5636
   96      385.918      16.7455
   97      386.372      14.0818
   98      386.826      11.3091
   99       387.28      10.9182
  100      387.734         11.4
  101      388.188      9.71818
  102      388.642      7.69091
  103      389.096      5.47273
  104       389.55      4.74545
  105      390.004      3.87273
  106      390.457      3.88182
  107      390.911      6.34545
  108      391.364      6.50909
  109      391.817      5.51818
  110       392.27      4.62727
  111      392.724      2.37273
  112      393.177    -0.818182
  113       393.63         -3.2
  114      394.082     -4.85455
  115      394.535         -7.9
  116      394.988     -10.9273
  117       395.44     -11.1909
  118      395.893     -8.36364
  119      396.345     -5.11818
  120      396.798          0.1
  121       397.25      4.86364
  122      397.702      6.51818
  123      398.154      7.78182
  124      398.606      9.55455
  125      399.058      11.8273
  126       399.51      15.2818
  127      399.962      18.5091
  128      400.413      18.0364
  129      400.865      14.2455
  130      401.316      11.1182
  131      401.768      7.32727
  132      402.219      2.86364
  133       402.67   -0.0636364
  134      403.121     -1.97273
  135      403.572         -3.3
  136      404.023     -5.07273
  137      404.474     -8.44545
  138      404.925     -10.9727
  139      405.375     -11.7455
  140      405.826        -11.5
  141      406.276     -11.5273
  142      406.727     -13.5182
  143      407.177     -15.0727
  144      407.627     -14.5182
  145      408.078     -14.3273
  146      408.528     -15.6455
  147      408.978     -15.2909
  148      409.427     -10.8818
  149      409.877     -6.20909
  150      410.327     -3.14545
  151      410.777      1.37273
  152      411.226          6.1
  153      411.675      11.2545
  154      412.125      15.6091
  155      412.574           16
  156      413.023      16.9273
  157      413.472      22.3455
  158      413.921      27.1455
  159       414.37      25.9364
  160      414.819      23.4818
  161      415.268         21.5
  162      415.716      18.0455
  163      416.165      15.5727
  164      416.613      14.0818
  165      417.062      12.1818
  166       417.51      10.7273
  167      417.958      9.06364
  168      418.406      5.29091
  169      418.854      2.46364
  170      419.302      4.30909
  171       419.75      6.48182
  172      420.198      8.25455
  173      420.645          8.2
  174      421.093      5.33636
  175       421.54      1.17273
  176      421.988         -2.4
  177      422.435     -2.32727
  178      422.882    -0.118182
  179      423.329          2.9
  180      423.776          4.7
  181      424.223      4.44545
  182       424.67      4.42727
  183      425.117      5.46364
  184      425.564      7.27273
  185       426.01      9.53636
  186      426.457         10.6
  187      426.903      11.4455
  188      427.349      12.1545
  189      427.795         12.2
  190      428.242      10.5909
  191      428.688      8.16364
  192      429.134          6.3
  193      429.579            4
  194      430.025    0.0818182
  195      430.471     -3.27273
  196      430.916     -5.49091
  197      431.362     -3.56364
  198      431.807     0.545455
  199      432.253      1.98182
  200      432.698      1.90909
  201      433.143      1.21818
  202      433.588     0.963636
  203      434.033     0.827273
  204      434.478     0.290909
  205      434.923          1.3
  206      435.367      4.05455
  207      435.812          7.3
  208      436.256      8.19091
  209      436.701          6.1
  210      437.145      4.37273
  211      437.589      1.85455
  212      438.034    -0.145455
  213      438.478     -1.37273
  214      438.922     -3.20909
  215      439.365         -4.4
  216      439.809     -6.80909
  217      440.253        -10.2
  218      440.697     -12.1182
  219       441.14     -13.1909
  220      441.583     -13.8909
  221      442.027     -14.0545
  222       442.47        -13.2
  223      442.913     -12.4364
  224      443.356        -11.3
  225      443.799     -9.73636
  226      444.242     -8.39091
  227      444.685     -5.71818
  228      445.128     -4.66364
  229       445.57     -4.39091
  230      446.013     -2.79091
  231      446.455     -1.43636
  232      446.897     0.272727
  233       447.34      2.04545
  234      447.782      4.76364
  235      448.224      7.75455
  236      448.666      10.3364
  237      449.108      11.5182
  238      449.549      12.3364
  239      449.991      14.4545
  240      450.433         13.7
  241      450.874      9.52727
  242      451.316      6.55455
  243      451.757      4.51818
  244      452.198      3.32727
  245      452.639      2.94545
  246       453.08     0.918182
  247      453.521    -0.472727
  248      453.962     0.472727
  249      454.403    -0.481818
  250      454.844         -3.3
  251      455.284         -3.8
  252      455.725     -1.02727
  253      456.165      2.06364
  254      456.606      4.85455
  255      457.046      7.09091
  256      457.486      7.04545
  257      457.926          7.1
  258      458.366      6.15455
  259      458.806      5.88182
  260      459.246      8.60909
  261      459.685      14.0273
  262      460.125      18.5182
  263      460.564      20.6091
  264      461.004      22.1909
  265      461.443      21.4455
  266      461.882      18.9636
  267      462.321      18.2818
  268       462.76      20.7545
  269      463.199      23.7364
  270      463.638      24.9273
  271      464.077      24.4273
  272      464.516      21.9182
  273      464.954      21.1364
  274      465.393      23.1364
  275      465.831      24.2636
  276      466.269      24.6182
  277      466.708      25.5455
  278      467.146      25.4909
  279      467.584      24.5182
  280      468.022      24.5182
  281      468.459      23.0091
  282      468.897         20.2
  283      469.335      19.5364
  284      469.772      17.8545
  285       470.21         13.3
  286      470.647      11.3455
  287      471.084      12.3727
  288      471.522      13.1818
  289      471.959      13.1909
  290      472.396      10.9455
  291      472.833      7.08182
  292      473.269      7.72727
  293      473.706      13.0455
  294      474.143      15.9636
  295      474.579      17.2545
  296      475.016      18.2455
  297      475.452      16.8545
  298      475.888      16.1091
  299      476.325      16.9273
  300      476.761      17.6545
  301      477.197         18.8
  302      477.633      22.4273
  303      478.068      24.5182
  304      478.504      21.9909
  305       478.94      17.9636
  306      479.375      14.5455
  307      479.811      12.8455
  308      480.246      13.0182
  309      480.681      12.4273
  310      481.116         11.7
  311      481.551      13.0182
  312      481.986         15.1
  313      482.421      14.4455
  314      482.856      11.0909
  315      483.291      9.56364
  316      483.725           10
  317       484.16      10.1727
  318      484.594      10.1455
  319      485.028      10.3636
  320      485.462      10.8636
  321      485.897      9.90909
  322      486.331      6.94545
  323      486.765      5.52727
  324      487.198      5.05455
  325      487.632      4.16364
  326      488.066      4.93636
  327      488.499      6.10909
  328      488.933          5.9
  329      489.366      4.56364
  330      489.799      1.99091
  331      490.233    -0.663636
  332      490.666     -2.82727
  333      491.099     -4.26364
  334      491.532     -6.53636
  335      491.964     -8.16364
  336      492.397     -5.90909
  337       492.83     -3.99091
  338      493.262     -4.11818
  339      493.695     -4.29091
  340      494.127     -4.02727
  341      494.559     -3.28182
  342      494.991     -3.01818
  343      495.423    -0.772727
  344      495.855     0.972727
  345      496.287    -0.309091
  346      496.719    -0.763636
  347      497.151     -2.43636
  348      497.582     -6.21818
  349      498.014     -8.22727
  350      498.445     -7.44545
  351      498.876     -5.72727
  352      499.307     -5.03636
  353      499.739     -5.27273
  354       500.17     -7.98182
  355        500.6     -8.43636
  356      501.031     -4.92727
  357      501.462     -3.14545
  358      501.893         -1.3
  359      502.323      1.04545
  360      502.754      2.53636
  361      503.184      3.88182
  362      503.614      4.21818
  363      504.044      3.25455
  364      504.474      3.39091
  365      504.904      7.03636
  366      505.334      8.94545
  367      505.764      7.31818
  368      506.194      6.15455
  369      506.623      4.29091
  370      507.053      2.18182
  371      507.482      3.10909
  372      507.911          5.5
  373      508.341      7.03636
  374       508.77      8.98182
  375      509.199      10.3364
  376      509.628      9.89091
  377      510.056      9.86364
  378      510.485      10.5727
  379      510.914      11.1182
  380      511.342         11.4
  381      511.771      11.8182
  382      512.199      9.81818
  383      512.627      6.39091
  384      513.055      5.10909
  385      513.484      3.91818
  386      513.912          2.6
  387      514.339      1.06364
  388      514.767     -1.07273
  389      515.195     -1.38182
  390      515.622     -1.00909
  391       516.05     -1.88182
  392      516.477     -2.86364
  393      516.905     -2.81818
  394      517.332     -2.87273
  395      517.759     -4.31818
  396      518.186         -5.2
  397      518.613     -3.19091
  398       519.04    -0.590909
  399      519.466    -0.190909
  400      519.893     -2.98182
  401      520.319     -7.02727
  402      520.746     -8.32727
  403      521.172         -8.4
  404      521.598     -10.5909
  405      522.025     -12.3545
  406      522.451     -13.3182
  407      522.877     -14.6818
  408      523.302     -17.3545
  409      523.728     -20.2091
  410      524.154     -20.5818
  411      524.579     -19.0727
  412      525.005     -16.8364
  413       525.43        -15.4
  414      525.855     -14.2182
  415      526.281     -11.5182
  416      526.706     -10.3364
  417      527.131         -9.7
  418      527.556     -7.95455
  419       527.98     -6.83636
  420      528.405     -6.82727
  421       528.83     -7.68182
  422      529.254     -6.93636
  423      529.679     -2.52727
  424      530.103      3.14545
  425      530.527          6.5
  426      530.951      7.56364
  427      531.375      7.99091
  428      531.799      8.37273
  429      532.223      8.87273
  430      532.647      9.85455
  431       533.07      11.5091
  432      533.494      14.0636
  433      533.917         15.2
  434      534.341      12.4636
  435      534.764      8.67273
  436      535.187      7.62727
  437       535.61      8.40909
  438      536.033      10.4727
  439      536.456         12.8
  440      536.879      14.4182
  441      537.301      14.8455
  442      537.724      15.5455
  443      538.146         15.6
  444      538.569      14.7364
  445      538.991      14.6182
  446      539.413      13.1727
  447      539.835      10.0909
  448      540.257      7.76364
  449      540.679      4.80909
  450      541.101     0.954545
  451      541.522     -2.12727
  452      541.944     -3.15455
  453      542.366     -3.59091
  454      542.787         -3.6
  455      543.208     -2.99091
  456      543.629     -4.06364
  457      544.051     -4.83636
  458      544.472     -2.04545
  459      544.892      1.35455
  460      545.313          2.8
  461      545.734      5.28182
  462      546.155      8.29091
  463      546.575      9.07273
  464      546.995      8.81818
  465      547.416      9.80909
  466      547.836      10.7364
  467      548.256      10.8182
  468      548.676      10.5182
  469      549.096      8.68182
  470      549.516      6.12727
  471      549.936      4.45455
  472      550.355      3.29091
  473      550.775      2.23636
  474      551.194      2.52727
  475      551.614      3.96364
  476      552.033      3.44545
  477      552.452      2.41818
  478      552.871      3.51818
  479       553.29      5.40909
  480      553.709      4.53636
  481      554.127      2.71818
  482      554.546      3.41818
  483      554.965      4.18182
  484      555.383      4.73636
  485      555.801      5.97273
  486       556.22      6.69091
  487      556.638          7.5
  488      557.056      8.80909
  489      557.474      9.21818
  490      557.892      8.74545
  491      558.309      10.1636
  492      558.727      12.5636
  493      559.145         13.9
  494      559.562      13.5091
  495       559.98      12.9727
  496      560.397      12.3636
  497      560.814      11.4364
  498      561.231      11.6091
  499      561.648      10.1364
  500      562.065          6.7
  501      562.482      3.16364
  502      562.898    -0.209091
  503      563.315     -3.06364
  504      563.731     -5.85455
  505      564.148     -7.29091
  506      564.564     -8.42727
  507       564.98        -11.1
  508      565.396     -14.0455
  509      565.812     -16.9636
  510      566.228     -17.9455
  511      566.644     -16.6818
  512       567.06     -13.4818
  513      567.475     -9.27273
  514      567.891     -6.83636
  515      568.306     -4.64545
  516      568.721     -1.80909
  517      569.136    0.0909091
  518      569.552      1.81818
  519      569.967      3.76364
  520      570.381      5.25455
  521      570.796      8.22727
  522      571.211      12.4818
  523      571.625      13.7364
  524       572.04      12.3091
  525      572.454      12.1455
  526      572.869      12.4545
  527      573.283      10.1909
  528      573.697      7.93636
  529      574.111      7.94545
  530      574.525      8.86364
  531      574.939      10.0909
  532      575.352      8.72727
  533      575.766      7.57273
  534      576.179      10.7909
  535      576.593      12.8636
  536      577.006      13.8455
  537      577.419      16.8364
  538      577.832      21.2818
  539      578.245      23.6091
  540      578.658      22.9455
  541      579.071      20.3273
  542      579.484         16.2
  543      579.896      13.8727
  544      580.309      11.8273
  545      580.721          7.2
  546      581.133      3.95455
  547      581.546      1.74545
  548      581.958     -2.76364
  549       582.37     -7.16364
  550      582.781     -9.97273
  551      583.193     -12.3818
  552      583.605     -13.5909
  553      584.017     -13.6455
  554      584.428     -13.2545
  555      584.839        -12.8
  556      585.251     -10.5636
  557      585.662     -7.12727
  558      586.073     -5.34545
  559      586.484     -2.98182
  560      586.895     -1.01818
  561      587.306          0.4
  562      587.716      2.09091
  563      588.127      2.75455
  564      588.537      3.23636
  565      588.948      4.08182
  566      589.358      4.27273
  567      589.768      2.33636
  568      590.178     0.263636
  569      590.588    -0.581818
  570      590.998     -1.68182
  571      591.408     -2.83636
  572      591.817     -2.74545
  573      592.227         -1.3
  574      592.636          0.9
  575      593.046      2.72727
  576      593.455      2.43636
  577      593.864      1.21818
  578      594.273          0.1
  579      594.682   -0.0818182
  580      595.091      1.31818
  581        595.5      2.72727
  582      595.908      4.03636
  583      596.317      6.36364
  584      596.725      9.55455
  585      597.134         10.2
  586      597.542      10.0727
  587       597.95         12.3
  588      598.358      15.4091
  589      598.766      17.6455
  590      599.174      17.6909
  591      599.582      16.2636
  592      599.989      15.9455
  593      600.397      17.1636
  594      600.804      17.0455
  595      601.212      16.1636
  596      601.619      16.0727
  597      602.026      15.6636
  598      602.433      15.6364
  599       602.84      29.0636
  600      603.247      48.4909
  601      603.654      58.2182
  602       604.06      62.6091
  603      604.467      63.5909
  604      604.873      62.7818
  605      605.279      59.9364
  606      605.686      55.8455
  607      606.092         53.8
  608      606.498      53.2545
  609      606.904      50.7727
  610      607.309      35.2364
  611      607.715      14.5909
  612      608.121      5.25455
