Kmac Spectrometer Data File
--- Measurement Setting ---
Type: Reference Spectrum
Date: Tue Dec 04 16:58:53 2018
User: (Reserved by KMAC)
Serial: (Reserved by KMAC)
Channel: No. 1
Integration Time: 100
Average: 10
Boxcar: 5
Electrical Dark: (Reserved by KMAC)
Time Normalize: (Reserved by KMAC)
Dual-beam: (Reserved by KMAC)
Reference Ch: (Reserved by KMAC)
--- Measurement Data ---
    0        341.9        55.25
    1      342.363      59.6714
    2      342.825      60.9375
    3      343.287      62.0333
    4       343.75        62.87
    5      344.212      64.5909
    6      344.674      68.9636
    7      345.136      72.4091
    8      345.598      76.4273
    9       346.06      80.2636
   10      346.522      81.1636
   11      346.984      79.1455
   12      347.445      78.1909
   13      347.907      78.5182
   14      348.368      79.9364
   15       348.83      82.1727
   16      349.291      82.4182
   17      349.752      80.9182
   18      350.213         78.3
   19      350.674      76.8636
   20      351.135      79.7909
   21      351.596      86.6182
   22      352.057      92.8364
   23      352.517      96.4818
   24      352.978      99.3091
   25      353.439         99.9
   26      353.899      99.3273
   27      354.359      100.845
   28       354.82      103.791
   29       355.28      107.245
   30       355.74      109.718
   31        356.2      108.491
   32       356.66      104.627
   33       357.12      102.064
   34       357.58        100.9
   35      358.039      100.964
   36      358.499      103.273
   37      358.958      107.027
   38      359.418      109.009
   39      359.877      109.873
   40      360.336      111.636
   41      360.796      113.745
   42      361.255      120.964
   43      361.714      131.518
   44      362.173      139.245
   45      362.631      144.691
   46       363.09      148.536
   47      363.549      151.336
   48      364.007      155.145
   49      364.466      160.636
   50      364.924      166.255
   51      365.383      171.645
   52      365.841      177.773
   53      366.299      179.236
   54      366.757      177.673
   55      367.215      179.473
   56      367.673      182.736
   57      368.131      187.045
   58      368.588      191.509
   59      369.046      194.118
   60      369.504      196.436
   61      369.961      201.373
   62      370.418      206.836
   63      370.876      208.964
   64      371.333      211.391
   65       371.79        215.4
   66      372.247      217.055
   67      372.704      219.245
   68      373.161      222.027
   69      373.618      224.955
   70      374.074      228.573
   71      374.531      230.745
   72      374.987      229.927
   73      375.444      229.127
   74        375.9      230.936
   75      376.356      235.782
   76      376.812      242.909
   77      377.269      250.236
   78      377.725      255.527
   79       378.18      259.427
   80      378.636      263.709
   81      379.092      267.655
   82      379.548      271.864
   83      380.003      278.345
   84      380.459      286.845
   85      380.914      296.245
   86      381.369      303.936
   87      381.825      309.227
   88       382.28      313.945
   89      382.735      322.118
   90       383.19        334.7
   91      383.645      345.791
   92      384.099      355.036
   93      384.554      365.091
   94      385.009      374.418
   95      385.463      380.682
   96      385.918      383.309
   97      386.372      386.045
   98      386.826      388.764
   99       387.28      393.827
  100      387.734      399.718
  101      388.188      402.891
  102      388.642      405.473
  103      389.096      407.582
  104       389.55      410.855
  105      390.004      414.655
  106      390.457      419.664
  107      390.911      427.782
  108      391.364      434.718
  109      391.817      441.227
  110       392.27      448.682
  111      392.724        455.4
  112      393.177      461.573
  113       393.63      469.018
  114      394.082      477.364
  115      394.535      483.364
  116      394.988      488.355
  117       395.44      496.918
  118      395.893      509.073
  119      396.345      521.427
  120      396.798      535.755
  121       397.25      550.282
  122      397.702      563.018
  123      398.154      575.809
  124      398.606      589.009
  125      399.058      604.364
  126       399.51      623.073
  127      399.962      641.836
  128      400.413        656.2
  129      400.865      667.527
  130      401.316      679.291
  131      401.768        690.5
  132      402.219      701.064
  133       402.67      712.027
  134      403.121      723.609
  135      403.572      736.855
  136      404.023      750.282
  137      404.474      762.591
  138      404.925      777.109
  139      405.375      793.964
  140      405.826      812.273
  141      406.276      831.382
  142      406.727      848.264
  143      407.177      865.382
  144      407.627      886.209
  145      408.078      908.682
  146      408.528      930.509
  147      408.978      954.345
  148      409.427      981.709
  149      409.877      1008.29
  150      410.327      1033.38
  151      410.777      1060.39
  152      411.226      1087.63
  153      411.675      1116.55
  154      412.125      1144.88
  155      412.574      1166.87
  156      413.023      1188.36
  157      413.472      1214.05
  158      413.921      1238.21
  159       414.37      1257.32
  160      414.819      1275.68
  161      415.268      1294.72
  162      415.716      1312.22
  163      416.165      1329.43
  164      416.613      1348.01
  165      417.062      1367.63
  166       417.51      1388.99
  167      417.958      1409.73
  168      418.406      1426.19
  169      418.854       1442.4
  170      419.302      1463.15
  171       419.75      1484.64
  172      420.198      1505.82
  173      420.645      1525.29
  174      421.093      1542.38
  175       421.54      1556.61
  176      421.988      1569.98
  177      422.435      1586.99
  178      422.882      1606.01
  179      423.329      1626.22
  180      423.776      1645.25
  181      424.223      1661.46
  182       424.67      1676.92
  183      425.117      1692.77
  184      425.564      1708.84
  185       426.01      1724.91
  186      426.457      1741.62
  187      426.903      1760.15
  188      427.349      1778.17
  189      427.795      1795.03
  190      428.242      1811.02
  191      428.688      1827.33
  192      429.134      1844.55
  193      429.579      1863.13
  194      430.025      1881.72
  195      430.471      1901.26
  196      430.916      1923.62
  197      431.362      1949.13
  198      431.807      1974.34
  199      432.253      1997.42
  200      432.698      2020.39
  201      433.143      2043.29
  202      433.588      2067.03
  203      434.033      2091.08
  204      434.478      2115.09
  205      434.923      2139.42
  206      435.367      2164.13
  207      435.812      2189.21
  208      436.256      2212.77
  209      436.701       2234.4
  210      437.145       2257.2
  211      437.589      2280.05
  212      438.034      2304.17
  213      438.478      2328.81
  214      438.922      2351.69
  215      439.365      2374.33
  216      439.809      2397.74
  217      440.253      2423.44
  218      440.697      2450.65
  219       441.14      2478.05
  220      441.583      2506.82
  221      442.027      2537.79
  222       442.47      2570.83
  223      442.913       2603.4
  224      443.356      2637.36
  225      443.799      2674.11
  226      444.242      2711.82
  227      444.685      2749.75
  228      445.128      2784.25
  229       445.57      2817.86
  230      446.013      2852.57
  231      446.455      2886.16
  232      446.897      2918.02
  233       447.34      2948.26
  234      447.782      2980.17
  235      448.224      3013.75
  236      448.666      3046.75
  237      449.108      3078.59
  238      449.549      3112.66
  239      449.991      3150.25
  240      450.433      3185.04
  241      450.874      3215.82
  242      451.316      3247.45
  243      451.757      3281.74
  244      452.198      3318.32
  245      452.639      3356.03
  246       453.08      3391.76
  247      453.521      3427.31
  248      453.962      3465.65
  249      454.403      3502.35
  250      454.844      3536.94
  251      455.284      3575.62
  252      455.725      3620.69
  253      456.165      3667.55
  254      456.606      3713.73
  255      457.046      3759.95
  256      457.486         3806
  257      457.926      3853.55
  258      458.366      3900.88
  259      458.806      3948.19
  260      459.246      3999.04
  261      459.685      4054.95
  262      460.125      4111.47
  263      460.564      4166.74
  264      461.004      4222.87
  265      461.443      4277.84
  266      461.882      4333.57
  267      462.321      4392.48
  268       462.76      4455.04
  269      463.199      4520.61
  270      463.638       4587.7
  271      464.077      4654.54
  272      464.516      4717.98
  273      464.954      4783.83
  274      465.393      4855.68
  275      465.831      4930.48
  276      466.269      5006.48
  277      466.708      5081.79
  278      467.146      5155.81
  279      467.584      5229.93
  280      468.022      5306.27
  281      468.459      5380.85
  282      468.897      5453.39
  283      469.335      5530.67
  284      469.772         5608
  285       470.21      5682.06
  286      470.647       5759.3
  287      471.084      5841.37
  288      471.522      5923.95
  289      471.959      6007.16
  290      472.396      6090.36
  291      472.833       6170.4
  292      473.269      6255.96
  293      473.706      6348.18
  294      474.143       6435.8
  295      474.579      6518.94
  296      475.016      6596.46
  297      475.452      6667.25
  298      475.888      6737.38
  299      476.325      6811.35
  300      476.761      6885.97
  301      477.197      6960.55
  302      477.633      7042.85
  303      478.068      7127.42
  304      478.504      7207.64
  305       478.94      7287.61
  306      479.375      7370.91
  307      479.811      7459.33
  308      480.246      7550.58
  309      480.681      7641.48
  310      481.116      7731.65
  311      481.551      7822.04
  312      481.986      7911.21
  313      482.421      7992.61
  314      482.856      8065.24
  315      483.291      8135.75
  316      483.725      8205.84
  317       484.16      8273.41
  318      484.594      8340.76
  319      485.028       8408.7
  320      485.462      8474.99
  321      485.897      8537.69
  322      486.331      8594.97
  323      486.765      8650.97
  324      487.198      8707.59
  325      487.632      8764.63
  326      488.066      8823.62
  327      488.499      8880.19
  328      488.933      8931.68
  329      489.366      8978.88
  330      489.799      9022.06
  331      490.233      9063.17
  332      490.666      9103.55
  333      491.099      9146.02
  334      491.532      9185.97
  335      491.964      9223.68
  336      492.397      9262.74
  337       492.83      9298.71
  338      493.262      9334.51
  339      493.695      9371.47
  340      494.127       9405.2
  341      494.559       9435.5
  342      494.991      9463.32
  343      495.423      9491.63
  344      495.855      9516.75
  345      496.287      9538.41
  346      496.719      9560.69
  347      497.151      9578.76
  348      497.582      9591.33
  349      498.014      9603.12
  350      498.445      9617.07
  351      498.876      9634.53
  352      499.307      9654.55
  353      499.739      9674.48
  354       500.17         9690
  355        500.6      9706.67
  356      501.031      9726.69
  357      501.462      9743.09
  358      501.893      9759.35
  359      502.323      9780.18
  360      502.754      9802.73
  361      503.184      9823.99
  362      503.614      9842.75
  363      504.044       9858.6
  364      504.474      9873.59
  365      504.904      9892.01
  366      505.334      9910.29
  367      505.764      9926.69
  368      506.194      9943.75
  369      506.623      9961.15
  370      507.053      9977.88
  371      507.482       9996.9
  372      507.911      10019.1
  373      508.341      10041.4
  374       508.77      10066.6
  375      509.199      10093.5
  376      509.628      10119.5
  377      510.056      10148.2
  378      510.485      10178.3
  379      510.914      10209.4
  380      511.342      10241.9
  381      511.771        10275
  382      512.199      10306.7
  383      512.627      10339.6
  384      513.055      10377.7
  385      513.484      10415.2
  386      513.912      10453.2
  387      514.339        10493
  388      514.767      10530.9
  389      515.195      10571.4
  390      515.622      10615.1
  391       516.05      10655.4
  392      516.477      10693.6
  393      516.905      10731.9
  394      517.332      10768.7
  395      517.759        10804
  396      518.186      10840.8
  397      518.613      10880.8
  398       519.04      10922.6
  399      519.466      10964.5
  400      519.893      11004.5
  401      520.319      11045.2
  402      520.746      11093.8
  403      521.172      11148.5
  404      521.598      11201.7
  405      522.025      11255.1
  406      522.451      11311.3
  407      522.877        11370
  408      523.302      11430.4
  409      523.728      11491.9
  410      524.154      11556.2
  411      524.579      11622.3
  412      525.005      11687.6
  413       525.43      11752.8
  414      525.855      11818.9
  415      526.281      11891.3
  416      526.706      11966.9
  417      527.131      12041.8
  418      527.556      12120.6
  419       527.98      12199.8
  420      528.405        12275
  421       528.83      12348.2
  422      529.254      12424.9
  423      529.679      12509.6
  424      530.103      12596.8
  425      530.527      12682.6
  426      530.951      12767.1
  427      531.375      12851.2
  428      531.799      12936.5
  429      532.223      13019.2
  430      532.647      13101.3
  431       533.07        13186
  432      533.494        13273
  433      533.917      13359.6
  434      534.341      13441.7
  435      534.764      13524.6
  436      535.187      13611.6
  437       535.61      13700.9
  438      536.033      13791.2
  439      536.456      13880.6
  440      536.879      13968.4
  441      537.301      14053.7
  442      537.724      14142.5
  443      538.146      14234.5
  444      538.569      14326.1
  445      538.991      14418.1
  446      539.413      14507.2
  447      539.835      14594.3
  448      540.257        14680
  449      540.679      14765.1
  450      541.101      14850.2
  451      541.522      14937.5
  452      541.944      15029.8
  453      542.366      15121.7
  454      542.787      15206.5
  455      543.208      15284.5
  456      543.629      15353.7
  457      544.051        15415
  458      544.472        15468
  459      544.892      15512.9
  460      545.313      15550.3
  461      545.734      15581.4
  462      546.155      15604.9
  463      546.575      15618.3
  464      546.995      15622.8
  465      547.416      15624.1
  466      547.836      15624.2
  467      548.256      15624.2
  468      548.676      15624.2
  469      549.096      15624.2
  470      549.516      15624.2
  471      549.936      15624.2
  472      550.355      15624.2
  473      550.775      15624.2
  474      551.194      15624.2
  475      551.614      15624.2
  476      552.033      15624.2
  477      552.452      15624.2
  478      552.871      15624.2
  479       553.29      15624.2
  480      553.709      15624.2
  481      554.127      15624.2
  482      554.546      15624.2
  483      554.965      15624.2
  484      555.383      15624.2
  485      555.801      15624.2
  486       556.22      15624.2
  487      556.638      15624.2
  488      557.056      15624.2
  489      557.474      15624.2
  490      557.892      15624.2
  491      558.309      15624.2
  492      558.727      15624.2
  493      559.145      15624.2
  494      559.562      15624.2
  495       559.98      15624.2
  496      560.397      15624.2
  497      560.814      15624.2
  498      561.231      15624.2
  499      561.648      15624.2
  500      562.065      15624.2
  501      562.482      15624.2
  502      562.898      15624.2
  503      563.315      15624.2
  504      563.731      15624.2
  505      564.148      15624.2
  506      564.564      15624.2
  507       564.98      15624.2
  508      565.396      15624.2
  509      565.812      15624.2
  510      566.228      15624.2
  511      566.644      15624.2
  512       567.06      15624.2
  513      567.475      15624.2
  514      567.891      15624.2
  515      568.306      15624.2
  516      568.721      15624.2
  517      569.136      15624.2
  518      569.552      15624.2
  519      569.967      15624.2
  520      570.381      15624.2
  521      570.796      15624.2
  522      571.211      15624.2
  523      571.625      15624.2
  524       572.04      15624.2
  525      572.454      15624.2
  526      572.869      15624.2
  527      573.283      15624.2
  528      573.697      15624.2
  529      574.111      15624.2
  530      574.525      15624.2
  531      574.939      15624.2
  532      575.352      15624.2
  533      575.766      15624.2
  534      576.179      15624.2
  535      576.593      15624.2
  536      577.006      15624.2
  537      577.419      15624.2
  538      577.832      15624.2
  539      578.245      15624.2
  540      578.658      15624.2
  541      579.071      15624.2
  542      579.484      15624.2
  543      579.896      15624.2
  544      580.309      15624.2
  545      580.721      15624.2
  546      581.133      15624.2
  547      581.546      15624.2
  548      581.958      15624.2
  549       582.37      15624.2
  550      582.781      15624.2
  551      583.193      15624.2
  552      583.605      15624.2
  553      584.017      15624.2
  554      584.428      15624.2
  555      584.839      15624.2
  556      585.251      15624.2
  557      585.662      15624.2
  558      586.073      15624.2
  559      586.484      15624.2
  560      586.895      15624.2
  561      587.306      15624.2
  562      587.716      15624.2
  563      588.127      15624.2
  564      588.537      15624.2
  565      588.948      15624.2
  566      589.358      15624.2
  567      589.768      15624.2
  568      590.178      15624.2
  569      590.588      15624.2
  570      590.998      15624.2
  571      591.408      15624.2
  572      591.817      15624.2
  573      592.227      15624.2
  574      592.636      15624.2
  575      593.046      15624.2
  576      593.455      15624.2
  577      593.864      15624.2
  578      594.273      15624.2
  579      594.682      15624.2
  580      595.091      15624.2
  581        595.5      15624.2
  582      595.908      15624.2
  583      596.317      15624.2
  584      596.725      15624.2
  585      597.134      15624.2
  586      597.542      15624.2
  587       597.95      15624.2
  588      598.358      15624.2
  589      598.766      15624.2
  590      599.174      15624.2
  591      599.582      15624.2
  592      599.989      15624.2
  593      600.397      15624.2
  594      600.804      15624.2
  595      601.212      15624.2
  596      601.619      15624.2
  597      602.026      15624.2
  598      602.433      15624.2
  599       602.84      15624.2
  600      603.247      15624.2
  601      603.654      15624.2
  602       604.06      15624.2
  603      604.467      15624.2
  604      604.873      15624.2
  605      605.279      15624.2
  606      605.686      15624.2
  607      606.092      15624.2
  608      606.498      15624.2
  609      606.904      15624.2
  610      607.309      15624.2
  611      607.715      15624.2
  612      608.121      15624.2
