Kmac Spectrometer Data File
--- Measurement Setting ---
Type: Reference Spectrum
Date: Tue Dec 04 14:57:01 2018
User: (Reserved by KMAC)
Serial: (Reserved by KMAC)
Channel: No. 1
Integration Time: 50
Average: 10
Boxcar: 5
Electrical Dark: (Reserved by KMAC)
Time Normalize: (Reserved by KMAC)
Dual-beam: (Reserved by KMAC)
Reference Ch: (Reserved by KMAC)
--- Measurement Data ---
    0        341.9     -9.66667
    1      342.363     -9.17143
    2      342.825      -9.1125
    3      343.287     -8.57778
    4       343.75        -8.05
    5      344.212     -7.49091
    6      344.674     -6.86364
    7      345.136     -6.58182
    8      345.598     -6.36364
    9       346.06     -5.78182
   10      346.522     -5.43636
   11      346.984     -5.74545
   12      347.445         -5.7
   13      347.907     -5.71818
   14      348.368     -6.03636
   15       348.83     -6.23636
   16      349.291     -6.61818
   17      349.752     -7.07273
   18      350.213     -7.60909
   19      350.674     -7.05455
   20      351.135     -5.64545
   21      351.596     -3.98182
   22      352.057     -2.51818
   23      352.517     -1.72727
   24      352.978     -1.30909
   25      353.439     -1.31818
   26      353.899     -1.66364
   27      354.359     -1.94545
   28       354.82     -1.98182
   29       355.28     -1.75455
   30       355.74           -2
   31        356.2     -2.83636
   32       356.66     -3.96364
   33       357.12           -5
   34       357.58         -5.6
   35      358.039     -5.56364
   36      358.499     -5.16364
   37      358.958     -4.74545
   38      359.418     -4.60909
   39      359.877     -4.57273
   40      360.336     -4.63636
   41      360.796     -5.36364
   42      361.255     -5.42727
   43      361.714     -4.57273
   44      362.173     -4.45455
   45      362.631     -4.88182
   46       363.09     -5.44545
   47      363.549     -6.34545
   48      364.007         -7.1
   49      364.466         -7.5
   50      364.924     -8.25455
   51      365.383     -8.96364
   52      365.841     -9.23636
   53      366.299     -10.4455
   54      366.757     -12.3636
   55      367.215     -13.2636
   56      367.673     -13.8636
   57      368.131     -14.2727
   58      368.588        -14.4
   59      369.046     -14.4182
   60      369.504     -14.3182
   61      369.961     -13.8273
   62      370.418     -12.9364
   63      370.876     -12.5091
   64      371.333        -12.1
   65       371.79     -11.5455
   66      372.247     -11.3909
   67      372.704     -10.9091
   68      373.161     -10.5182
   69      373.618     -10.1545
   70      374.074     -9.79091
   71      374.531     -9.92727
   72      374.987     -10.1818
   73      375.444     -10.6545
   74        375.9     -10.7727
   75      376.356     -10.1545
   76      376.812     -9.39091
   77      377.269     -9.04545
   78      377.725     -9.30909
   79       378.18     -9.49091
   80      378.636     -9.14545
   81      379.092     -9.00909
   82      379.548     -8.70909
   83      380.003     -8.02727
   84      380.459     -7.52727
   85      380.914     -7.12727
   86      381.369     -7.12727
   87      381.825     -7.20909
   88       382.28     -6.71818
   89      382.735         -4.9
   90       383.19     -2.37273
   91      383.645         -0.8
   92      384.099     0.363636
   93      384.554      1.29091
   94      385.009          1.5
   95      385.463      1.61818
   96      385.918      1.40909
   97      386.372      1.00909
   98      386.826     0.263636
   99       387.28    -0.345455
  100      387.734     -1.54545
  101      388.188     -3.51818
  102      388.642         -5.4
  103      389.096     -7.25455
  104       389.55         -8.5
  105      390.004     -9.20909
  106      390.457     -9.43636
  107      390.911     -9.04545
  108      391.364     -8.90909
  109      391.817     -9.16364
  110       392.27     -9.39091
  111      392.724     -9.56364
  112      393.177     -9.71818
  113       393.63     -9.82727
  114      394.082     -9.95455
  115      394.535     -10.4455
  116      394.988     -11.0455
  117       395.44     -11.3545
  118      395.893     -10.8818
  119      396.345     -10.2273
  120      396.798     -8.75455
  121       397.25     -6.94545
  122      397.702     -6.18182
  123      398.154     -5.94545
  124      398.606     -5.48182
  125      399.058     -4.71818
  126       399.51         -3.7
  127      399.962         -2.8
  128      400.413         -2.6
  129      400.865     -3.23636
  130      401.316     -3.96364
  131      401.768     -5.04545
  132      402.219     -6.60909
  133       402.67     -7.64545
  134      403.121     -8.18182
  135      403.572     -8.44545
  136      404.023     -8.89091
  137      404.474     -9.72727
  138      404.925     -10.2636
  139      405.375     -10.4364
  140      405.826     -10.2909
  141      406.276     -10.0545
  142      406.727     -10.2909
  143      407.177     -10.4909
  144      407.627     -10.3182
  145      408.078     -10.1727
  146      408.528     -10.2545
  147      408.978     -9.66364
  148      409.427     -8.11818
  149      409.877     -7.04545
  150      410.327     -6.52727
  151      410.777     -5.45455
  152      411.226     -4.54545
  153      411.675     -3.30909
  154      412.125     -2.01818
  155      412.574     -1.75455
  156      413.023     -1.62727
  157      413.472    -0.954545
  158      413.921         -0.8
  159       414.37     -1.78182
  160      414.819     -2.63636
  161      415.268     -3.23636
  162      415.716     -4.73636
  163      416.165     -6.10909
  164      416.613     -7.33636
  165      417.062     -8.90909
  166       417.51     -10.3545
  167      417.958     -11.4091
  168      418.406     -12.2909
  169      418.854     -12.7455
  170      419.302     -12.3182
  171       419.75     -11.7636
  172      420.198     -11.3182
  173      420.645     -11.2818
  174      421.093     -11.8909
  175       421.54     -12.8545
  176      421.988     -13.4818
  177      422.435     -13.2455
  178      422.882     -12.8182
  179      423.329        -12.3
  180      423.776     -11.7364
  181      424.223     -11.6273
  182       424.67     -11.8273
  183      425.117     -11.8182
  184      425.564     -11.2364
  185       426.01     -10.2545
  186      426.457     -9.44545
  187      426.903     -8.55455
  188      427.349     -7.44545
  189      427.795     -6.67273
  190      428.242     -6.41818
  191      428.688     -6.35455
  192      429.134     -6.51818
  193      429.579     -6.68182
  194      430.025         -7.1
  195      430.471     -7.46364
  196      430.916     -7.53636
  197      431.362         -6.9
  198      431.807     -6.06364
  199      432.253     -5.98182
  200      432.698     -6.28182
  201      433.143     -7.13636
  202      433.588     -8.01818
  203      434.033     -8.46364
  204      434.478     -8.72727
  205      434.923     -8.62727
  206      435.367     -8.39091
  207      435.812     -8.13636
  208      436.256     -8.09091
  209      436.701     -8.77273
  210      437.145     -9.43636
  211      437.589     -9.96364
  212      438.034     -10.2273
  213      438.478     -10.5909
  214      438.922          -11
  215      439.365        -11.2
  216      439.809     -11.9455
  217      440.253     -12.8091
  218      440.697     -13.3909
  219       441.14     -13.9455
  220      441.583     -14.0364
  221      442.027     -13.9273
  222       442.47     -13.7455
  223      442.913     -13.1636
  224      443.356     -12.2364
  225      443.799     -11.4818
  226      444.242     -11.1545
  227      444.685     -10.6364
  228      445.128     -10.5091
  229       445.57     -10.5545
  230      446.013     -9.97273
  231      446.455     -9.45455
  232      446.897     -8.92727
  233       447.34     -8.17273
  234      447.782     -7.39091
  235      448.224     -6.74545
  236      448.666     -6.14545
  237      449.108     -5.59091
  238      449.549     -4.92727
  239      449.991         -3.6
  240      450.433     -2.73636
  241      450.874     -3.09091
  242      451.316         -3.3
  243      451.757     -3.26364
  244      452.198     -3.64545
  245      452.639     -4.10909
  246       453.08     -4.83636
  247      453.521     -5.40909
  248      453.962     -5.40909
  249      454.403     -5.77273
  250      454.844     -6.82727
  251      455.284         -7.4
  252      455.725     -7.14545
  253      456.165     -6.90909
  254      456.606     -6.79091
  255      457.046     -6.46364
  256      457.486     -6.58182
  257      457.926     -6.99091
  258      458.366     -7.59091
  259      458.806     -7.97273
  260      459.246     -7.65455
  261      459.685     -6.65455
  262      460.125     -5.88182
  263      460.564     -5.67273
  264      461.004     -5.95455
  265      461.443     -6.74545
  266      461.882         -7.5
  267      462.321     -7.72727
  268       462.76     -6.90909
  269      463.199     -6.02727
  270      463.638     -5.71818
  271      464.077     -5.69091
  272      464.516         -6.5
  273      464.954           -7
  274      465.393     -6.29091
  275      465.831     -4.90909
  276      466.269         -3.9
  277      466.708     -3.44545
  278      467.146     -3.64545
  279      467.584     -4.43636
  280      468.022     -4.90909
  281      468.459     -5.30909
  282      468.897     -5.93636
  283      469.335     -5.62727
  284      469.772         -5.7
  285       470.21     -6.92727
  286      470.647     -8.16364
  287      471.084     -8.53636
  288      471.522     -8.68182
  289      471.959     -8.94545
  290      472.396     -9.32727
  291      472.833     -10.2727
  292      473.269     -10.0364
  293      473.706         -8.6
  294      474.143     -7.94545
  295      474.579     -7.69091
  296      475.016     -7.40909
  297      475.452         -7.4
  298      475.888     -7.28182
  299      476.325         -6.5
  300      476.761     -5.31818
  301      477.197     -4.33636
  302      477.633     -2.65455
  303      478.068     -2.17273
  304      478.504     -3.42727
  305       478.94     -4.87273
  306      479.375     -5.53636
  307      479.811     -5.77273
  308      480.246     -6.03636
  309      480.681     -6.35455
  310      481.116     -6.89091
  311      481.551     -7.12727
  312      481.986     -6.93636
  313      482.421     -7.22727
  314      482.856     -7.67273
  315      483.291     -7.53636
  316      483.725     -7.48182
  317       484.16     -8.19091
  318      484.594     -8.99091
  319      485.028     -9.35455
  320      485.462     -9.56364
  321      485.897     -9.88182
  322      486.331     -10.5818
  323      486.765     -10.7182
  324      487.198        -11.1
  325      487.632     -12.2091
  326      488.066     -12.6364
  327      488.499     -12.2727
  328      488.933     -11.9727
  329      489.366     -12.0182
  330      489.799     -12.5091
  331      490.233     -13.1091
  332      490.666     -13.3091
  333      491.099     -13.2273
  334      491.532     -13.5091
  335      491.964     -13.1636
  336      492.397     -11.7182
  337       492.83     -10.7091
  338      493.262     -10.4545
  339      493.695     -9.98182
  340      494.127     -9.47273
  341      494.559     -8.74545
  342      494.991     -7.93636
  343      495.423     -6.72727
  344      495.855     -5.34545
  345      496.287     -5.15455
  346      496.719     -5.84545
  347      497.151     -7.05455
  348      497.582     -8.19091
  349      498.014     -8.69091
  350      498.445     -8.94545
  351      498.876     -8.62727
  352      499.307     -8.40909
  353      499.739     -8.77273
  354       500.17     -10.1818
  355        500.6     -11.4545
  356      501.031     -11.3273
  357      501.462     -10.8727
  358      501.893     -10.0636
  359      502.323     -9.40909
  360      502.754     -9.23636
  361      503.184     -8.70909
  362      503.614     -8.58182
  363      504.044     -8.89091
  364      504.474     -8.68182
  365      504.904     -7.70909
  366      505.334     -7.40909
  367      505.764     -8.21818
  368      506.194     -8.95455
  369      506.623     -10.0636
  370      507.053     -11.5636
  371      507.482     -12.3727
  372      507.911     -12.7455
  373      508.341     -13.0455
  374       508.77     -13.3455
  375      509.199        -13.6
  376      509.628     -13.8182
  377      510.056     -14.0182
  378      510.485     -13.8909
  379      510.914     -13.5455
  380      511.342     -12.8818
  381      511.771     -11.6364
  382      512.199     -10.7455
  383      512.627     -10.7909
  384      513.055     -10.6727
  385      513.484     -9.81818
  386      513.912     -9.07273
  387      514.339     -9.16364
  388      514.767     -9.58182
  389      515.195     -9.43636
  390      515.622     -8.77273
  391       516.05         -8.2
  392      516.477     -8.10909
  393      516.905     -7.85455
  394      517.332     -7.17273
  395      517.759         -7.1
  396      518.186     -8.07273
  397      518.613     -8.56364
  398       519.04     -8.34545
  399      519.466     -8.24545
  400      519.893     -8.89091
  401      520.319     -10.0455
  402      520.746     -10.6182
  403      521.172     -10.9364
  404      521.598     -12.3727
  405      522.025     -13.9636
  406      522.451     -14.9545
  407      522.877     -15.5182
  408      523.302     -16.2545
  409      523.728     -17.0545
  410      524.154     -17.2273
  411      524.579     -16.7364
  412      525.005          -16
  413       525.43     -15.7364
  414      525.855        -15.7
  415      526.281     -14.7636
  416      526.706     -13.7364
  417      527.131     -12.8818
  418      527.556     -11.8455
  419       527.98        -11.3
  420      528.405     -11.1091
  421       528.83     -11.0636
  422      529.254     -10.9909
  423      529.679     -10.2909
  424      530.103     -9.28182
  425      530.527     -8.12727
  426      530.951     -7.24545
  427      531.375     -7.03636
  428      531.799     -7.04545
  429      532.223     -6.89091
  430      532.647     -6.25455
  431       533.07     -5.78182
  432      533.494     -5.46364
  433      533.917     -5.19091
  434      534.341     -5.55455
  435      534.764     -6.02727
  436      535.187     -6.12727
  437       535.61     -5.88182
  438      536.033     -5.29091
  439      536.456         -4.6
  440      536.879     -4.26364
  441      537.301     -4.42727
  442      537.724     -4.29091
  443      538.146     -3.75455
  444      538.569     -3.63636
  445      538.991     -3.68182
  446      539.413     -4.16364
  447      539.835     -5.11818
  448      540.257     -6.26364
  449      540.679     -7.82727
  450      541.101     -9.38182
  451      541.522     -10.2364
  452      541.944     -10.5818
  453      542.366     -11.0364
  454      542.787     -11.7727
  455      543.208     -12.3455
  456      543.629     -13.1636
  457      544.051     -13.5545
  458      544.472     -12.6364
  459      544.892     -11.1182
  460      545.313         -9.7
  461      545.734     -8.17273
  462      546.155     -7.14545
  463      546.575     -6.87273
  464      546.995         -6.5
  465      547.416     -5.69091
  466      547.836     -4.78182
  467      548.256         -4.1
  468      548.676     -4.03636
  469      549.096     -4.77273
  470      549.516     -6.15455
  471      549.936     -7.36364
  472      550.355     -8.48182
  473      550.775     -9.30909
  474      551.194     -9.70909
  475      551.614     -9.81818
  476      552.033     -10.0545
  477      552.452        -10.5
  478      552.871     -10.4545
  479       553.29     -10.1455
  480      553.709     -10.6545
  481      554.127     -11.3273
  482      554.546     -11.3545
  483      554.965     -11.5636
  484      555.383     -11.8273
  485      555.801     -11.3091
  486       556.22     -10.6909
  487      556.638     -10.4636
  488      557.056        -10.4
  489      557.474     -10.5364
  490      557.892     -10.6545
  491      558.309     -10.4818
  492      558.727     -9.91818
  493      559.145     -9.47273
  494      559.562           -9
  495       559.98     -8.28182
  496      560.397     -8.01818
  497      560.814     -8.02727
  498      561.231     -7.70909
  499      561.648     -7.73636
  500      562.065     -8.18182
  501      562.482     -8.96364
  502      562.898     -9.54545
  503      563.315     -9.99091
  504      563.731     -10.5364
  505      564.148     -11.0091
  506      564.564     -11.8091
  507       564.98     -13.0455
  508      565.396     -14.2455
  509      565.812     -15.3182
  510      566.228     -16.1273
  511      566.644     -16.5818
  512       567.06     -16.3091
  513      567.475     -15.6182
  514      567.891     -15.2364
  515      568.306     -14.8091
  516      568.721     -14.1273
  517      569.136     -13.5818
  518      569.552     -12.8909
  519      569.967     -12.0455
  520      570.381     -11.1727
  521      570.796     -9.61818
  522      571.211     -7.79091
  523      571.625     -6.66364
  524       572.04     -6.21818
  525      572.454     -5.68182
  526      572.869     -5.06364
  527      573.283     -4.70909
  528      573.697     -4.11818
  529      574.111     -3.62727
  530      574.525     -3.52727
  531      574.939     -3.54545
  532      575.352     -4.43636
  533      575.766     -5.13636
  534      576.179     -4.42727
  535      576.593     -3.84545
  536      577.006     -3.66364
  537      577.419     -3.13636
  538      577.832     -2.71818
  539      578.245     -3.16364
  540      578.658     -4.00909
  541      579.071     -5.28182
  542      579.484     -6.93636
  543      579.896         -7.6
  544      580.309     -7.64545
  545      580.721     -8.51818
  546      581.133     -9.52727
  547      581.546        -10.1
  548      581.958     -11.1455
  549       582.37     -12.4182
  550      582.781        -13.4
  551      583.193     -13.9182
  552      583.605     -13.9818
  553      584.017     -13.8364
  554      584.428     -13.5636
  555      584.839     -13.8909
  556      585.251          -14
  557      585.662     -13.2727
  558      586.073     -12.7636
  559      586.484        -12.1
  560      586.895     -11.1182
  561      587.306     -10.1909
  562      587.716         -9.8
  563      588.127     -9.43636
  564      588.537     -8.78182
  565      588.948     -8.86364
  566      589.358     -9.30909
  567      589.768     -9.96364
  568      590.178     -10.5273
  569      590.588     -10.6364
  570      590.998     -10.8273
  571      591.408     -11.3273
  572      591.817     -11.2909
  573      592.227     -10.6545
  574      592.636     -10.0455
  575      593.046     -9.83636
  576      593.455     -9.73636
  577      593.864     -9.61818
  578      594.273     -9.39091
  579      594.682     -9.27273
  580      595.091     -8.97273
  581        595.5     -8.47273
  582      595.908           -8
  583      596.317     -7.47273
  584      596.725     -6.74545
  585      597.134     -6.43636
  586      597.542     -6.31818
  587       597.95     -5.60909
  588      598.358     -4.61818
  589      598.766     -4.25455
  590      599.174         -4.1
  591      599.582     -4.20909
  592      599.989     -4.38182
  593      600.397     -3.82727
  594      600.804     -3.75455
  595      601.212     -3.75455
  596      601.619     -3.35455
  597      602.026     -3.14545
  598      602.433     -2.95455
  599       602.84     0.945455
  600      603.247      6.39091
  601      603.654      8.58182
  602       604.06      9.05455
  603      604.467      8.74545
  604      604.873      7.90909
  605      605.279          6.9
  606      605.686      5.49091
  607      606.092      3.93636
  608      606.498      2.99091
  609      606.904      1.93636
  610      607.309     -2.75455
  611      607.715     -8.72727
  612      608.121        -11.5
